Trace
Swept SA
A.10.52,N9000A
503 ,01
Segment,0
Number of Points,1001
Sweep Time,0.001333333333
Start Frequency,1000000
Stop Frequency,3080000000
Average Count,0
Average Type,LogPower(Video)
RBW,3000000
RBW Filter,Gaussian
RBW Filter BW,3dB
VBW,3000000
Sweep Type,Swept
X Axis Scale,Lin
PreAmp State,Off
PreAmp Band,Low
Trigger Source,Free
Trigger Level,1.2
Trigger Slope,Positive
Trigger Delay,0
Phase Noise Optimization,Fast
Swept If Gain,Low
FFT If Gain,Autorange
RF Coupling,AC
FFT Width,411900
Ext Ref,10000000
Input,RF
RF Calibrator,Off
Attenuation,10
Ref Level Offset,0
External Gain,0
Trace Type,Average
Detector,Sample
Trace Math,Off
Trace Math Oper1,Trace5
Trace Math Oper2,Trace6
Trace Math Offset,0
Trace Name,Trace1
X Axis Units,Hz
Y Axis Units,dBm
DATA
1000000,-6.90882977353008
4079000,-22.1801395575428
7158000,-69.2407744063666
10237000,-76.5342840762985
13316000,-77.1072082417343
16395000,-77.0947569794762
19474000,-76.8735235346077
22553000,-77.59063580571
25632000,-77.4802236145166
28711000,-76.259257338236
31790000,-77.6443764673322
34869000,-78.151680247958
37948000,-76.9854996770348
41027000,-77.2814462686119
44106000,-77.2220677048694
47185000,-76.8612352594213
50264000,-78.0596485015617
53343000,-77.0327475254026
56422000,-76.6527773225746
59501000,-77.8163091830094
62580000,-77.8243965940215
65659000,-77.1125235707338
68738000,-77.3680252710666
71817000,-77.8309589783627
74896000,-77.319646432615
77975000,-77.3945815521706
81054000,-78.0667954273105
84133000,-77.2842616348781
87212000,-77.6354319221567
90291000,-78.1045493439373
93370000,-76.862813276814
96449000,-77.7675457639235
99528000,-77.5529349117948
102607000,-77.6558963907605
105686000,-76.9179477701023
108765000,-77.6042590431065
111844000,-77.4851468544351
114923000,-78.1053498697168
118002000,-78.2073477947393
121081000,-77.2941513714345
124160000,-76.5730633206306
127239000,-77.7631253088586
130318000,-76.957006283607
133397000,-77.2227940422981
136476000,-77.3606774009187
139555000,-77.1721948904089
142634000,-76.7428941148611
145713000,-76.7248177094827
148792000,-76.3288626120074
151871000,-77.6807061464596
154950000,-76.8308495613726
158029000,-76.0054013875064
161108000,-77.228829307792
164187000,-77.0603268603725
167266000,-76.1477706528306
170345000,-77.4879992022294
173424000,-76.4207423760145
176503000,-76.9022719442901
179582000,-76.189188140317
182661000,-75.5061640110777
185740000,-77.4884517419791
188819000,-76.4576067121166
191898000,-76.6163748582811
194977000,-75.639440424832
198056000,-75.719972264035
201135000,-76.0049492233722
204214000,-77.1131490958472
207293000,-76.1653861624067
210372000,-76.4911779141345
213451000,-77.3738591939948
216530000,-76.2930274985301
219609000,-76.5657618119695
222688000,-77.0854068909435
225767000,-76.5812826648063
228846000,-77.126558381066
231925000,-76.3460811150661
235004000,-76.8048407535218
238083000,-76.9660833633799
241162000,-77.5384540155031
244241000,-77.2814851957053
247320000,-77.0510159926356
250399000,-76.6967877227348
253478000,-76.9161330915126
256557000,-77.1095789298778
259636000,-77.0631752016783
262715000,-76.9902284598585
265794000,-77.1155808300859
268873000,-77.7051569673019
271952000,-77.0765420058546
275031000,-76.7634120446821
278110000,-78.0403674818206
281189000,-77.2388134911312
284268000,-78.0288482150628
287347000,-77.860626314593
290426000,-77.4510196157952
293505000,-77.7623982841353
296584000,-76.7367901812719
299663000,-76.7778167867275
302742000,-76.959376162317
305821000,-76.7594608703689
308900000,-77.1523346797813
311979000,-77.2357444433238
315058000,-76.6660467896204
318137000,-77.5407526551247
321216000,-76.9501308574585
324295000,-76.4890087099655
327374000,-77.5314793060301
330453000,-78.482058249598
333532000,-77.4527597031237
336611000,-78.1434937546674
339690000,-76.9797800981594
342769000,-77.2074619433886
345848000,-76.6066479414466
348927000,-77.3063034263866
352006000,-76.9782469984147
355085000,-77.6145774932289
358164000,-77.3027695129055
361243000,-76.9392478751258
364322000,-77.5038440083135
367401000,-77.6387577494127
370480000,-77.2917270733598
373559000,-77.2511304276726
376638000,-76.4126560478093
379717000,-78.1203380050378
382796000,-77.0147607204613
385875000,-77.2536216254822
388954000,-76.9904044867314
392033000,-76.493237305616
395112000,-77.2752727895572
398191000,-77.3463050073475
401270000,-77.4112608875072
404349000,-77.369667125509
407428000,-77.5443143592901
410507000,-76.8432917929812
413586000,-76.8277337608091
416665000,-77.1006289288098
419744000,-76.359461334104
422823000,-76.5951649432447
425902000,-77.1518668173304
428981000,-76.949723981649
432060000,-76.6633626761169
435139000,-77.1615676492909
438218000,-76.3905209441726
441297000,-76.7156014059253
444376000,-77.2753984917408
447455000,-77.5440099584721
450534000,-76.3572436394098
453613000,-76.1622969140488
456692000,-77.495838109237
459771000,-77.322626949988
462850000,-75.8844190773415
465929000,-77.009834884699
469008000,-76.0621087235455
472087000,-77.0492612946252
475166000,-76.8611610329274
478245000,-76.8649774359729
481324000,-78.2230826252888
484403000,-76.9480500292891
487482000,-77.3891821588962
490561000,-76.6873880562706
493640000,-76.6270843283168
496719000,-76.9478335732331
499798000,-76.843584004174
502877000,-77.0331959830439
505956000,-77.2203646640467
509035000,-77.2103746593183
512114000,-76.8607761843223
515193000,-76.6184347999476
518272000,-75.8169403190973
521351000,-76.7789375925457
524430000,-77.0369295988206
527509000,-76.6273775920961
530588000,-76.5782167007981
533667000,-77.3308199060523
536746000,-77.2776649611683
539825000,-76.2298665500663
542904000,-75.5770583949708
545983000,-75.9453195202729
549062000,-76.4988212619816
552141000,-75.6929530538395
555220000,-75.6847468430355
558299000,-75.2710752563765
561378000,-76.1053054247261
564457000,-75.4376194847738
567536000,-75.7032367512306
570615000,-75.1549219248374
573694000,-76.0357517450551
576773000,-75.7456877473955
579852000,-75.6417403670426
582931000,-74.8866949140096
586010000,-74.8124502819972
589089000,-75.2273489490115
592168000,-74.2107354524034
595247000,-74.5857670781999
598326000,-74.9889148064685
601405000,-75.1190420866208
604484000,-74.8200580931683
607563000,-75.1165884022694
610642000,-74.5457820283862
613721000,-75.3146823947824
616800000,-75.0140210031579
619879000,-75.1592692034341
622958000,-74.5199437191451
626037000,-74.7599302952824
629116000,-74.0146853170303
632195000,-73.5586208107057
635274000,-73.7830357908645
638353000,-74.4654048138885
641432000,-75.086186579918
644511000,-74.8985906637252
647590000,-75.2854003936695
650669000,-74.6741258750918
653748000,-74.8367089559041
656827000,-74.6699034452565
659906000,-74.7770016924473
662985000,-74.7292008947065
666064000,-75.6517255140547
669143000,-75.09644626248
672222000,-75.1654521750918
675301000,-75.1076312132678
678380000,-75.225436561343
681459000,-75.9139290089728
684538000,-74.8863581128569
687617000,-75.8691564658587
690696000,-75.918804836034
693775000,-76.0393294746309
696854000,-75.6969743564427
699933000,-76.142950474652
703012000,-75.5463444878441
706091000,-75.2554159829739
709170000,-75.6909426607492
712249000,-76.3866373607512
715328000,-76.0554823657277
718407000,-75.7178033447892
721486000,-76.2596481588067
724565000,-76.6249767683134
727644000,-75.667521923567
730723000,-76.5591194580784
733802000,-76.5464702940075
736881000,-76.1002835830582
739960000,-76.5422005847432
743039000,-75.9276296284042
746118000,-77.0021746404835
749197000,-76.3944423530593
752276000,-76.1765683199265
755355000,-76.640908438687
758434000,-75.8554567954327
761513000,-76.2900237041395
764592000,-76.2802187861712
767671000,-76.0581928891364
770750000,-77.2407412377172
773829000,-76.7053192337387
776908000,-76.0739637103857
779987000,-76.7893894663935
783066000,-76.9541252167849
786145000,-76.6694091601492
789224000,-77.1560965546036
792303000,-76.5729679299042
795382000,-77.4640917593459
798461000,-77.5343426434897
801540000,-77.1330902241115
804619000,-76.396243906459
807698000,-76.6707264125732
810777000,-76.1616042045499
813856000,-76.5786061722377
816935000,-77.0121305209198
820014000,-77.1746284445581
823093000,-76.9956821313256
826172000,-76.5679369009538
829251000,-76.7580952368453
832330000,-77.2977509732372
835409000,-76.0953244897986
838488000,-75.5529677925664
841567000,-76.4379440708584
844646000,-76.8436976070296
847725000,-77.6963361889381
850804000,-75.7643018370009
853883000,-75.6160098723435
856962000,-76.8470234604626
860041000,-77.7981960758596
863120000,-76.6285028940071
866199000,-75.6564166931182
869278000,-75.6401026497149
872357000,-76.0227224620532
875436000,-75.6871815429606
878515000,-75.251759644272
881594000,-76.2028110089287
884673000,-76.2839339442059
887752000,-75.5363895020554
890831000,-76.3384552462696
893910000,-77.014315658523
896989000,-75.7869564239195
900068000,-76.2634896479683
903147000,-76.4883278433566
906226000,-76.4113391381672
909305000,-75.7663591278527
912384000,-76.8723604674019
915463000,-76.3233218385615
918542000,-76.615069095327
921621000,-76.2043159080131
924700000,-75.9796571787327
927779000,-76.1126451855
930858000,-75.650100682705
933937000,-76.3843865667889
937016000,-76.3113791961384
940095000,-76.4072955064459
943174000,-76.5149502613682
946253000,-75.6989413986805
949332000,-76.4619541965952
952411000,-76.4023540135381
955490000,-76.6229896628048
958569000,-75.9821685401178
961648000,-76.927145542701
964727000,-75.6399760233497
967806000,-76.0921434724978
970885000,-75.8684914776041
973964000,-75.2311318100625
977043000,-75.7128186493408
980122000,-77.1213861832671
983201000,-75.704086322743
986280000,-77.2809794745973
989359000,-76.1362574776053
992438000,-76.5818419864672
995517000,-76.6933384909436
998596000,-76.5121283057219
1001675000,-75.8160324607954
1004754000,-76.1976363907405
1007833000,-75.932774025114
1010912000,-75.7931638827532
1013991000,-75.9418769800295
1017070000,-76.3873329969443
1020149000,-76.2042666186638
1023228000,-75.9872512463806
1026307000,-76.5031117855045
1029386000,-75.6615046286094
1032465000,-75.9613753340085
1035544000,-77.203431372926
1038623000,-75.9321458734178
1041702000,-76.2765056386832
1044781000,-75.8205423868048
1047860000,-76.3652197222995
1050939000,-76.1523503713685
1054018000,-75.7946968774005
1057097000,-75.9927497374792
1060176000,-75.7590979081233
1063255000,-76.4583258263321
1066334000,-76.8939547805229
1069413000,-77.0707920755876
1072492000,-76.7994844554499
1075571000,-76.9931840325847
1078650000,-75.6200288220752
1081729000,-76.2051914660018
1084808000,-76.7416486100024
1087887000,-76.5509731744697
1090966000,-77.3827912876959
1094045000,-76.6880280165898
1097124000,-76.625055426651
1100203000,-75.9847052993936
1103282000,-76.4451943329941
1106361000,-76.0947189250054
1109440000,-76.0060638528182
1112519000,-76.0296825057604
1115598000,-76.2634277445183
1118677000,-75.245089521383
1121756000,-75.8432972757768
1124835000,-76.7044146265869
1127914000,-75.7229619839352
1130993000,-75.7275486753352
1134072000,-75.9219766125516
1137151000,-76.3583713284207
1140230000,-75.9731615062837
1143309000,-76.5470960366898
1146388000,-75.7482058346469
1149467000,-76.6726222562855
1152546000,-75.3957787803227
1155625000,-76.2845056020822
1158704000,-76.4182233055389
1161783000,-75.7653014170347
1164862000,-76.7136147356975
1167941000,-76.1613754914499
1171020000,-75.8799322565894
1174099000,-75.3344067981276
1177178000,-76.6440736287457
1180257000,-76.1254657892505
1183336000,-76.0234464510031
1186415000,-77.253328094389
1189494000,-76.6567725019427
1192573000,-75.7558669949842
1195652000,-76.9579109152589
1198731000,-76.5578445217282
1201810000,-74.7052169559202
1204889000,-75.667788561009
1207968000,-75.2091889607699
1211047000,-75.1634899123258
1214126000,-75.1755050367127
1217205000,-76.5886267816467
1220284000,-74.7738975656994
1223363000,-75.2668393412949
1226442000,-74.7876445686788
1229521000,-75.5895122813877
1232600000,-74.7328055732212
1235679000,-75.9499419212933
1238758000,-75.0601738471807
1241837000,-75.6628534397451
1244916000,-75.0654657509617
1247995000,-75.0857825027257
1251074000,-75.4010707941577
1254153000,-74.5023936061524
1257232000,-75.1495861498625
1260311000,-75.2636388458463
1263390000,-74.9624060779157
1266469000,-74.6776765528209
1269548000,-75.5400423203565
1272627000,-75.3788288708828
1275706000,-74.4975356978971
1278785000,-74.9759692762146
1281864000,-74.1352869291912
1284943000,-74.5478907305043
1288022000,-74.1451330731868
1291101000,-74.4961008779303
1294180000,-75.1034172601076
1297259000,-75.0043119262038
1300338000,-75.3319554807717
1303417000,-74.6144901447366
1306496000,-74.3907135169907
1309575000,-74.2744702559395
1312654000,-75.0566568662279
1315733000,-74.2496096956896
1318812000,-75.0352328643043
1321891000,-74.5594355147344
1324970000,-74.7265503335566
1328049000,-74.5563467782812
1331128000,-74.2864316600685
1334207000,-75.1244623919235
1337286000,-74.6808210474629
1340365000,-75.0437865642599
1343444000,-74.0323682649675
1346523000,-74.7295471342855
1349602000,-74.9550161570564
1352681000,-73.9412861478789
1355760000,-74.1809847221146
1358839000,-74.1326708459944
1361918000,-74.0706503217867
1364997000,-74.3853599885905
1368076000,-74.5540768726475
1371155000,-73.6675562048796
1374234000,-74.4676248681433
1377313000,-74.098571708638
1380392000,-74.9858430223123
1383471000,-73.9402943641221
1386550000,-74.8913395678398
1389629000,-74.805436334714
1392708000,-74.4384870451314
1395787000,-74.6748085151836
1398866000,-74.2598648370524
1401945000,-74.1403796460724
1405024000,-74.8032041297616
1408103000,-74.2717527171987
1411182000,-74.0937307618871
1414261000,-73.5601222653227
1417340000,-73.7071029314265
1420419000,-74.7126213019441
1423498000,-74.0418759975506
1426577000,-75.1068184303186
1429656000,-74.564057404785
1432735000,-73.3724716848428
1435814000,-74.8281305920709
1438893000,-74.2381977922916
1441972000,-74.5754110111293
1445051000,-73.8684440808654
1448130000,-75.0974615153179
1451209000,-74.6626996008744
1454288000,-73.4029997255872
1457367000,-74.6122940602752
1460446000,-73.5447105002579
1463525000,-73.6694514012115
1466604000,-73.8900892335672
1469683000,-74.0545090449336
1472762000,-73.8001924004495
1475841000,-74.4115587650736
1478920000,-73.6020646623354
1481999000,-73.0943695337647
1485078000,-73.9401472848103
1488157000,-73.1995772870926
1491236000,-73.8542615765816
1494315000,-73.8618149322394
1497394000,-73.6235518891309
1500473000,-73.7303245913656
1503552000,-73.7967838516994
1506631000,-73.4093613782756
1509710000,-74.3436429195006
1512789000,-74.0990709130696
1515868000,-73.0819827105468
1518947000,-73.0669632542328
1522026000,-73.1949323456639
1525105000,-73.8455781621048
1528184000,-72.8060041511719
1531263000,-73.167118465624
1534342000,-73.4611971137857
1537421000,-73.3880516208453
1540500000,-73.34256051381
1543579000,-73.2346359501699
1546658000,-72.7027446680242
1549737000,-73.0935531968194
1552816000,-73.6288992855809
1555895000,-73.9967667817055
1558974000,-73.4219602722359
1562053000,-73.3574888292582
1565132000,-73.1901359993189
1568211000,-72.0041577005149
1571290000,-73.3850591867343
1574369000,-72.647145269162
1577448000,-72.5026988565612
1580527000,-72.7159843913491
1583606000,-71.8013057521333
1586685000,-72.7569111340349
1589764000,-72.0117611460908
1592843000,-72.1609164300248
1595922000,-72.3782879951403
1599001000,-72.5674179285228
1602080000,-72.1943864487666
1605159000,-72.1003299252359
1608238000,-72.0956810632897
1611317000,-71.8956027552605
1614396000,-70.9786937826044
1617475000,-72.3779558254923
1620554000,-71.7184558927774
1623633000,-71.0119968944285
1626712000,-71.9298515704183
1629791000,-71.5665085519389
1632870000,-71.742180676358
1635949000,-72.0402565985047
1639028000,-71.1055043849835
1642107000,-72.3070342138786
1645186000,-72.1392409397946
1648265000,-71.312696815813
1651344000,-72.6597635098496
1654423000,-71.6988379373643
1657502000,-71.79293928168
1660581000,-71.6656747181609
1663660000,-72.4479740918918
1666739000,-71.4951750904461
1669818000,-71.5961619272147
1672897000,-71.2527864531623
1675976000,-71.1403602655229
1679055000,-71.5003756823359
1682134000,-71.9139744312209
1685213000,-70.5210725170159
1688292000,-71.3002816694993
1691371000,-71.0011495187422
1694450000,-70.4836460194805
1697529000,-71.9809559105936
1700608000,-71.2949762969292
1703687000,-70.5730125133991
1706766000,-70.7800946621793
1709845000,-70.2799874339493
1712924000,-70.7992002870908
1716003000,-71.0480855727309
1719082000,-71.0061574353988
1722161000,-71.3798221027549
1725240000,-70.6545493671367
1728319000,-71.457292778495
1731398000,-71.3976015029855
1734477000,-71.3462515760369
1737556000,-71.5653151816828
1740635000,-71.6692567987463
1743714000,-70.5081349915757
1746793000,-71.1877618780514
1749872000,-71.3104765137969
1752951000,-70.8114548412481
1756030000,-71.4047664916269
1759109000,-71.6706065223896
1762188000,-72.3515200507026
1765267000,-70.9942641619375
1768346000,-71.2768468484683
1771425000,-72.1583424687358
1774504000,-71.1175250466052
1777583000,-71.537870976052
1780662000,-71.5922771267448
1783741000,-71.0378264064564
1786820000,-70.4634629624321
1789899000,-71.0811431671502
1792978000,-71.688200443869
1796057000,-71.3795837436178
1799136000,-71.5431475831703
1802215000,-71.6809652381925
1805294000,-71.9545627578716
1808373000,-71.2942218315475
1811452000,-71.2871643962732
1814531000,-72.257173617349
1817610000,-71.6961593094722
1820689000,-72.3062155231617
1823768000,-71.4286681610323
1826847000,-71.9217671660753
1829926000,-70.9251345090044
1833005000,-71.7929965706978
1836084000,-72.4507961805984
1839163000,-71.6525972820132
1842242000,-71.4478907435959
1845321000,-72.4659158587387
1848400000,-72.3902703056738
1851479000,-73.0162105935806
1854558000,-72.3453826680322
1857637000,-72.1614421465074
1860716000,-71.7034284555409
1863795000,-72.2274845077846
1866874000,-72.8671703255955
1869953000,-71.4283185499678
1873032000,-72.5056133872572
1876111000,-71.573467796251
1879190000,-71.8711749714439
1882269000,-71.6071262001554
1885348000,-72.6712064431399
1888427000,-71.7473403661256
1891506000,-72.117531888252
1894585000,-71.9492498007798
1897664000,-72.3277586010774
1900743000,-72.441011282255
1903822000,-71.4950045422364
1906901000,-71.8936503142285
1909980000,-71.3141791533691
1913059000,-72.0683580168818
1916138000,-72.3436501669911
1919217000,-71.035453272393
1922296000,-72.816753745532
1925375000,-72.5233510768022
1928454000,-72.0379393072647
1931533000,-72.7675768885188
1934612000,-72.1498477330812
1937691000,-71.9661227588027
1940770000,-71.8068218426518
1943849000,-71.0848896169785
1946928000,-71.2727795182958
1950007000,-72.3690833951026
1953086000,-71.5878593592678
1956165000,-72.1118887032585
1959244000,-71.5873973702307
1962323000,-71.0872278502957
1965402000,-71.2746640271416
1968481000,-71.2211943920504
1971560000,-71.4304957685094
1974639000,-71.3919883303024
1977718000,-71.7645537087784
1980797000,-71.7341561173505
1983876000,-71.6448272861824
1986955000,-72.1403083366953
1990034000,-71.1263211733093
1993113000,-71.0013400083264
1996192000,-71.0150000919971
1999271000,-70.5434640706078
2002350000,-70.9868199780724
2005429000,-71.4636726392827
2008508000,-71.4463982832905
2011587000,-70.8989586060506
2014666000,-71.5383742103599
2017745000,-71.2349039773303
2020824000,-70.6222797433088
2023903000,-70.2991582064039
2026982000,-70.8790617623961
2030061000,-71.1870734283832
2033140000,-70.1624011838729
2036219000,-70.7948414528148
2039298000,-70.5960635187425
2042377000,-70.5562491682435
2045456000,-70.3141776060002
2048535000,-70.8354859264108
2051614000,-71.4357409333329
2054693000,-70.6438602456147
2057772000,-70.1719120861946
2060851000,-71.1514789148491
2063930000,-69.3884368744081
2067009000,-70.8879314059514
2070088000,-71.1531092544998
2073167000,-69.8753826368494
2076246000,-70.063791610039
2079325000,-69.9172103371089
2082404000,-69.6885624674554
2085483000,-70.8879638570987
2088562000,-70.0981443042188
2091641000,-70.5136212407256
2094720000,-70.2770911162264
2097799000,-70.6508479973218
2100878000,-70.0476145247971
2103957000,-70.0930994678922
2107036000,-70.3603205831857
2110115000,-70.0393407709911
2113194000,-70.069844351508
2116273000,-70.3586716566629
2119352000,-69.7791091908311
2122431000,-70.5444760477309
2125510000,-70.4756651763429
2128589000,-70.0998883216
2131668000,-70.0672024619838
2134747000,-70.9212109180293
2137826000,-70.4356587690979
2140905000,-70.2196342162179
2143984000,-71.1158446341599
2147063000,-70.2834904772539
2150142000,-70.9010108524011
2153221000,-71.1622894904084
2156300000,-69.8421489521618
2159379000,-71.3604465993504
2162458000,-70.0467793529462
2165537000,-69.4212547325335
2168616000,-70.4643467825614
2171695000,-70.1770683462801
2174774000,-71.1850065465438
2177853000,-70.2649046878846
2180932000,-70.1316616412524
2184011000,-69.8567909830688
2187090000,-70.74352060633
2190169000,-71.3101140510274
2193248000,-70.3725327352434
2196327000,-71.3826418670271
2199406000,-70.7384141052898
2202485000,-70.3374235259049
2205564000,-70.1489962512286
2208643000,-71.2828040874839
2211722000,-71.5238283276143
2214801000,-71.0266965718613
2217880000,-70.5465502226508
2220959000,-71.8948998532377
2224038000,-71.3161766237954
2227117000,-70.6049425428958
2230196000,-71.2319755999108
2233275000,-70.9479833565563
2236354000,-70.6482402963332
2239433000,-71.1742910575858
2242512000,-71.438803957707
2245591000,-71.528813088022
2248670000,-71.507333969297
2251749000,-70.9769973844327
2254828000,-70.3853306524874
2257907000,-71.5103869308357
2260986000,-71.0734886251605
2264065000,-71.2463657937181
2267144000,-71.4618518570472
2270223000,-71.0634267847195
2273302000,-70.5995563940735
2276381000,-70.4479843069399
2279460000,-69.8159048749763
2282539000,-71.1590891184129
2285618000,-71.7323240636688
2288697000,-71.1624431505263
2291776000,-71.7044958100766
2294855000,-71.7025410592662
2297934000,-72.1543556674303
2301013000,-71.3462387184949
2304092000,-71.4961547133367
2307171000,-71.9999624257358
2310250000,-71.1929904478473
2313329000,-71.2348127310246
2316408000,-71.5230886076445
2319487000,-71.1281920324742
2322566000,-70.8422856646853
2325645000,-71.0708538942189
2328724000,-70.7597110944123
2331803000,-71.4767717779653
2334882000,-70.7309138417026
2337961000,-70.7702176578039
2341040000,-71.8502540585729
2344119000,-70.5704741781519
2347198000,-70.7210873517819
2350277000,-71.0699927961967
2353356000,-71.3159098439578
2356435000,-70.4003650924637
2359514000,-70.640051458278
2362593000,-70.6949102538296
2365672000,-70.8418414597076
2368751000,-71.5652594693679
2371830000,-71.1700613367651
2374909000,-70.9035775226452
2377988000,-71.3357209890433
2381067000,-71.1441794216262
2384146000,-70.7289104404235
2387225000,-70.8048717590347
2390304000,-70.0876311261993
2393383000,-70.5746924750209
2396462000,-70.7132863963761
2399541000,-70.7993163228428
2402620000,-71.5076962411856
2405699000,-70.8108635638256
2408778000,-71.5818132956594
2411857000,-71.5294305567709
2414936000,-70.5322884395308
2418015000,-71.4936649773654
2421094000,-70.9496719460691
2424173000,-70.621128094355
2427252000,-70.1240403359603
2430331000,-70.5811964172365
2433410000,-70.7302011405197
2436489000,-71.0949321151969
2439568000,-70.5664089057949
2442647000,-70.9042484245236
2445726000,-70.2639021652556
2448805000,-70.5216283304379
2451884000,-70.4197190874866
2454963000,-70.5942348864371
2458042000,-70.5176087014101
2461121000,-70.6518720901927
2464200000,-71.0993365263189
2467279000,-69.3229023249665
2470358000,-70.7469553911229
2473437000,-70.9337853941149
2476516000,-70.8254362715503
2479595000,-71.2986961252384
2482674000,-70.4935779262039
2485753000,-71.0119617466554
2488832000,-71.3235343715077
2491911000,-70.3970537912238
2494990000,-70.221624714685
2498069000,-70.0718278002133
2501148000,-70.6969484544118
2504227000,-69.5499838028326
2507306000,-70.7127082790768
2510385000,-69.6948508445975
2513464000,-70.3474140451629
2516543000,-70.2084854936714
2519622000,-70.0807427472005
2522701000,-70.3398518377051
2525780000,-69.9311383390566
2528859000,-69.7096819381129
2531938000,-69.7056928096534
2535017000,-69.0472897803116
2538096000,-69.4414646821786
2541175000,-69.6875327223799
2544254000,-69.957258510766
2547333000,-69.576012782909
2550412000,-70.6988261282324
2553491000,-69.2645065311519
2556570000,-50.2295624886587
2559649000,-26.9690830205927
2562728000,-30.1865913458107
2565807000,-62.0349296483414
2568886000,-68.3606824846856
2571965000,-69.3090065205615
2575044000,-70.1202158873082
2578123000,-69.9742422582313
2581202000,-69.7363110521076
2584281000,-69.3546894473744
2587360000,-68.9922674649532
2590439000,-69.1581626194453
2593518000,-69.7174329596511
2596597000,-69.8195802101278
2599676000,-69.0502757670223
2602755000,-70.3396900041753
2605834000,-69.5273821799924
2608913000,-69.1090586504653
2611992000,-69.5553576399365
2615071000,-69.8513851939835
2618150000,-68.5604097144084
2621229000,-69.115847719588
2624308000,-69.603386126593
2627387000,-69.0274756942374
2630466000,-70.2686852831599
2633545000,-69.8587735029789
2636624000,-69.2110288119022
2639703000,-69.182152349808
2642782000,-69.6913040066734
2645861000,-69.517834669428
2648940000,-68.4000156167566
2652019000,-70.4129140579201
2655098000,-70.1637909411121
2658177000,-69.4652263051737
2661256000,-68.6009760276447
2664335000,-69.4829254088485
2667414000,-68.9308521912492
2670493000,-68.6440440079321
2673572000,-69.3695797979881
2676651000,-69.8261869047616
2679730000,-69.0860243988082
2682809000,-69.0674167408459
2685888000,-69.413625967597
2688967000,-69.7269290127245
2692046000,-68.9623234518879
2695125000,-68.8416585120335
2698204000,-69.2931680464605
2701283000,-69.0380553081842
2704362000,-69.1489318726672
2707441000,-68.199681513426
2710520000,-69.2880748482688
2713599000,-69.1453833773596
2716678000,-69.5946542230586
2719757000,-68.7411599435458
2722836000,-68.4670908724381
2725915000,-68.3313986827219
2728994000,-68.687513955137
2732073000,-68.4172391541523
2735152000,-68.5920568636643
2738231000,-67.5907172530644
2741310000,-68.7511120216
2744389000,-67.9980586070355
2747468000,-67.8285263096976
2750547000,-68.2488120382963
2753626000,-68.0838502361217
2756705000,-67.7888481382734
2759784000,-67.2805852228288
2762863000,-67.8792043172451
2765942000,-68.1565470919669
2769021000,-67.3793840290065
2772100000,-67.1013010998625
2775179000,-66.9438731188665
2778258000,-67.8137202377468
2781337000,-66.9430408502548
2784416000,-66.4925901457733
2787495000,-67.3925795888143
2790574000,-66.3255678196071
2793653000,-66.3558413819339
2796732000,-67.2976634682753
2799811000,-66.9896555041344
2802890000,-66.3792318169677
2805969000,-67.0710878751585
2809048000,-66.6794610701995
2812127000,-66.4753074336653
2815206000,-67.1366666542137
2818285000,-66.5972980113774
2821364000,-65.6723766237311
2824443000,-66.376928998376
2827522000,-66.8274420937617
2830601000,-66.3887189881326
2833680000,-66.4473399440501
2836759000,-66.9785304063852
2839838000,-67.7726191170616
2842917000,-66.188294725409
2845996000,-67.0728259344606
2849075000,-66.1499263395135
2852154000,-66.2860564556937
2855233000,-67.5661732641018
2858312000,-65.4112484999896
2861391000,-66.504395048655
2864470000,-66.2152488060399
2867549000,-65.9774152309094
2870628000,-66.5047231963574
2873707000,-66.6123418175015
2876786000,-65.8852191939216
2879865000,-66.4428793452382
2882944000,-66.1982246501539
2886023000,-66.3748503959318
2889102000,-66.2395790186829
2892181000,-66.3048547143179
2895260000,-64.8456622724987
2898339000,-67.9707729187609
2901418000,-66.7847160903873
2904497000,-66.2347944608698
2907576000,-66.6028797148849
2910655000,-66.7449349872025
2913734000,-65.951556203472
2916813000,-67.6634016880415
2919892000,-66.7631378222931
2922971000,-67.2703155912794
2926050000,-67.1539653510815
2929129000,-66.1473729521514
2932208000,-67.1250067001429
2935287000,-66.7728226258689
2938366000,-66.8093401900841
2941445000,-67.0865136734618
2944524000,-66.6950932884453
2947603000,-66.9708227868908
2950682000,-66.4791646631202
2953761000,-67.7707929103644
2956840000,-66.6519472522718
2959919000,-67.3033479475356
2962998000,-67.0780668235789
2966077000,-66.7914865238286
2969156000,-66.5069343421713
2972235000,-66.7739514863812
2975314000,-66.375240439867
2978393000,-66.595597380194
2981472000,-66.7353158150404
2984551000,-66.7720747083601
2987630000,-66.1551840935983
2990709000,-66.9007595706302
2993788000,-66.2140951903472
2996867000,-66.9102579871675
2999946000,-66.0221242529911
3003025000,-66.6893837860725
3006104000,-65.4946195332697
3009183000,-66.836413041225
3012262000,-65.8608022105756
3015341000,-66.3744798022828
3018420000,-65.3570477768036
3021499000,-65.578186837284
3024578000,-66.0998254833337
3027657000,-65.7236168181935
3030736000,-65.6641429775575
3033815000,-65.8207835065884
3036894000,-65.0541542938748
3039973000,-65.2450770589572
3043052000,-65.9207215229852
3046131000,-65.2196741593217
3049210000,-66.2398325858047
3052289000,-64.948358419293
3055368000,-65.7153543431279
3058447000,-65.0398551290053
3061526000,-65.9122710276367
3064605000,-65.062622089184
3067684000,-65.2172333238455
3070763000,-64.9929725498537
3073842000,-65.2279074096516
3076921000,-65.7550484019682
3080000000,-64.7536177453507
