Trace
Swept SA
A.10.52,N9000A
503 ,01
Segment,0
Number of Points,1001
Sweep Time,0.001133333333
Start Frequency,1000000
Stop Frequency,2560000000
Average Count,0
Average Type,LogPower(Video)
RBW,3000000
RBW Filter,Gaussian
RBW Filter BW,3dB
VBW,3000000
Sweep Type,Swept
X Axis Scale,Lin
PreAmp State,Off
PreAmp Band,Low
Trigger Source,Free
Trigger Level,1.2
Trigger Slope,Positive
Trigger Delay,0
Phase Noise Optimization,Fast
Swept If Gain,Low
FFT If Gain,Autorange
RF Coupling,AC
FFT Width,411900
Ext Ref,10000000
Input,RF
RF Calibrator,Off
Attenuation,10
Ref Level Offset,0
External Gain,0
Trace Type,Average
Detector,Sample
Trace Math,Off
Trace Math Oper1,Trace5
Trace Math Oper2,Trace6
Trace Math Offset,0
Trace Name,Trace1
X Axis Units,Hz
Y Axis Units,dBm
DATA
1000000,-6.93019289507117
3559000,-17.7338160081341
6118000,-49.2734547378995
8677000,-76.8397221962323
11236000,-76.4757306829855
13795000,-77.043474776794
16354000,-77.6103213005012
18913000,-77.4028922735571
21472000,-76.9505143263513
24031000,-77.1894384222754
26590000,-76.6896567836507
29149000,-77.2581978009619
31708000,-77.0473889454786
34267000,-76.9945301079073
36826000,-77.7770086449054
39385000,-76.7111591823876
41944000,-77.5902580518541
44503000,-77.5662532329229
47062000,-77.151649606438
49621000,-77.6707012657552
52180000,-77.5780620071789
54739000,-77.5483979543467
57298000,-77.6444269007522
59857000,-78.0501652150313
62416000,-77.3104476406346
64975000,-77.964247752592
67534000,-76.9651313776602
70093000,-78.3652447925765
72652000,-77.606892959597
75211000,-77.4288576815845
77770000,-77.3752914069726
80329000,-77.611746641272
82888000,-77.0101526992525
85447000,-77.1821804704614
88006000,-77.243577347952
90565000,-77.8447872637314
93124000,-77.6418379782634
95683000,-77.0191765958337
98242000,-77.0746125169354
100801000,-77.5579677587796
103360000,-77.6230569815695
105919000,-78.2775144412643
108478000,-76.9085771766971
111037000,-76.5865942870813
113596000,-77.8512976723868
116155000,-77.4168419769998
118714000,-76.9940791612271
121273000,-77.7289780344972
123832000,-78.2672566152143
126391000,-76.7472747410654
128950000,-77.1274557421596
131509000,-76.4469491673847
134068000,-76.6080602424248
136627000,-77.3381923353752
139186000,-77.1560597193539
141745000,-77.4312742344228
144304000,-77.3185559329858
146863000,-77.9525280742212
149422000,-77.6255786937892
151981000,-77.2049401166391
154540000,-77.6070294731964
157099000,-75.6614769541708
159658000,-76.6666207085861
162217000,-76.8646923400904
164776000,-76.7951524564304
167335000,-77.2308030645812
169894000,-76.5103828711682
172453000,-76.4811603120106
175012000,-76.0098921572345
177571000,-76.4857877754293
180130000,-77.0944223367163
182689000,-76.2443761544903
185248000,-76.8712509272694
187807000,-76.7880458518313
190366000,-76.3602927482107
192925000,-76.0525539897464
195484000,-76.4093765891692
198043000,-76.8819195412643
200602000,-75.9698070917792
203161000,-76.0926647840378
205720000,-76.8214336605225
208279000,-75.7783081543313
210838000,-76.2406290863726
213397000,-77.5476766371373
215956000,-76.3267887775506
218515000,-76.970199707729
221074000,-76.7582619552534
223633000,-76.252437983145
226192000,-76.6645847993632
228751000,-76.8343639420513
231310000,-77.0033044602685
233869000,-77.1489812415841
236428000,-77.495619374336
238987000,-77.3677127873181
241546000,-77.3195855676773
244105000,-75.9071483801253
246664000,-77.3672898951962
249223000,-76.4611113348077
251782000,-77.2662987170356
254341000,-78.5355016902537
256900000,-76.7843009209732
259459000,-79.035286970324
262018000,-78.2037290207127
264577000,-77.8203530721231
267136000,-77.5802719325486
269695000,-77.3210800153872
272254000,-78.1195704637546
274813000,-77.2812784645067
277372000,-77.4697921301001
279931000,-76.973210735748
282490000,-77.8390132518552
285049000,-77.5680673795624
287608000,-77.5010053501423
290167000,-77.4789009872065
292726000,-77.4309263170304
295285000,-77.9589008935233
297844000,-76.8864663848511
300403000,-77.6810549462221
302962000,-77.5990362650508
305521000,-77.0968670063957
308080000,-77.2609640233085
310639000,-77.6426827332891
313198000,-77.5994451729306
315757000,-77.0538766829525
318316000,-77.7985077368815
320875000,-77.076333914111
323434000,-77.5086672438461
325993000,-77.0478209813596
328552000,-77.3375197272102
331111000,-77.8126115489835
333670000,-77.4078994233825
336229000,-77.232726608126
338788000,-76.6732590538154
341347000,-77.7483752504705
343906000,-77.6827422468777
346465000,-77.3492877287822
349024000,-77.6040256858458
351583000,-76.7293555865492
354142000,-77.2203938003734
356701000,-77.3200891500654
359260000,-76.9753116418572
361819000,-77.0159094513819
364378000,-77.7455052412687
366937000,-77.4546624834482
369496000,-77.3199822993676
372055000,-77.7197854604897
374614000,-77.6320581070122
377173000,-77.0853222470079
379732000,-77.5927327277418
382291000,-77.5803371278953
384850000,-77.2503021631176
387409000,-77.6839930219175
389968000,-76.7268122692297
392527000,-76.9819109109664
395086000,-77.5587825914966
397645000,-76.839036134778
400204000,-77.0572147036578
402763000,-76.3307998761332
405322000,-76.5800472575078
407881000,-76.4275206433499
410440000,-76.519336687687
412999000,-77.0754476611097
415558000,-77.4968805407995
418117000,-77.0519268755865
420676000,-77.992327055825
423235000,-77.6043076582426
425794000,-76.9140071386135
428353000,-76.395773920358
430912000,-76.7178176789837
433471000,-76.5465644527818
436030000,-77.8956784462123
438589000,-76.9780745869945
441148000,-76.9881817130025
443707000,-76.043588638711
446266000,-77.1627865381327
448825000,-77.2823675073298
451384000,-75.9454672009414
453943000,-76.8118705841165
456502000,-76.9642628087622
459061000,-76.726230050763
461620000,-76.3684003792311
464179000,-76.7289119211024
466738000,-77.5043721013655
469297000,-76.3914359547266
471856000,-76.7085861858032
474415000,-76.8365671234864
476974000,-77.2000389255574
479533000,-76.0038305079943
482092000,-76.959392690128
484651000,-76.5479373432874
487210000,-76.2830085459022
489769000,-78.094297540607
492328000,-76.7834985305647
494887000,-76.3408735434826
497446000,-77.1841611637902
500005000,-77.5691989436007
502564000,-76.6388739535338
505123000,-77.0289871156336
507682000,-76.544537993253
510241000,-77.5282951712915
512800000,-76.5663094668077
515359000,-77.0281070715174
517918000,-76.6053876422328
520477000,-76.6716985197784
523036000,-77.5423481657707
525595000,-75.8980837288611
528154000,-76.5231606168249
530713000,-76.3168925536202
533272000,-76.5747749681893
535831000,-76.4147640588001
538390000,-75.7518133108128
540949000,-76.6976334588198
543508000,-76.5034412707107
546067000,-76.3658542772812
548626000,-76.8368972551152
551185000,-76.0156851439525
553744000,-75.8173590396232
556303000,-75.913761143514
558862000,-76.11766500779
561421000,-76.3649785453738
563980000,-75.0271199894598
566539000,-76.5265262295862
569098000,-75.7881159428475
571657000,-75.1489764588871
574216000,-75.2541247563342
576775000,-75.084601025087
579334000,-75.5190555104817
581893000,-75.8252137979164
584452000,-75.3667619481075
587011000,-75.6124583675068
589570000,-74.5455198186621
592129000,-75.0041384062357
594688000,-74.6967890567078
597247000,-74.8844573006858
599806000,-75.0615474816779
602365000,-74.586683917706
604924000,-74.2874834094051
607483000,-75.1358679452538
610042000,-74.8266892056611
612601000,-74.1527036076454
615160000,-74.4741255083897
617719000,-74.8919074130294
620278000,-74.0778046726749
622837000,-75.8251987181506
625396000,-74.9401823489952
627955000,-75.0033515444339
630514000,-74.2913189458964
633073000,-75.3148628621952
635632000,-74.2467124656986
638191000,-73.8966051269144
640750000,-75.1301646680789
643309000,-76.4500510735289
645868000,-75.4983296483641
648427000,-75.1453667454848
650986000,-74.7439332573329
653545000,-75.1658158333777
656104000,-74.8022510048204
658663000,-74.5768496481853
661222000,-75.8316222960814
663781000,-74.8602334749585
666340000,-74.4804066869701
668899000,-76.074900019572
671458000,-75.5564146237984
674017000,-76.1377686841101
676576000,-75.1529824945671
679135000,-75.8472672095466
681694000,-75.1766928785779
684253000,-75.5460146704226
686812000,-76.1995545734992
689371000,-75.753993427856
691930000,-76.0810253519669
694489000,-75.367862481798
697048000,-75.4815059940389
699607000,-76.6415466651373
702166000,-75.6100079914054
704725000,-75.6262708246249
707284000,-75.3686520576452
709843000,-75.9154727143616
712402000,-75.5255543781056
714961000,-76.2863515360878
717520000,-76.3097613526768
720079000,-75.9929363682961
722638000,-75.8298785932466
725197000,-76.5169648158989
727756000,-75.5191137653877
730315000,-76.7923382490115
732874000,-75.6950751736329
735433000,-77.1741624027627
737992000,-75.7024596226072
740551000,-76.5136841460945
743110000,-75.7168568838705
745669000,-75.4592344976893
748228000,-76.7417888647023
750787000,-76.3540649109829
753346000,-77.2133569966219
755905000,-76.386877260313
758464000,-76.7564086233261
761023000,-76.8291726497283
763582000,-76.6749300280424
766141000,-76.2150489809584
768700000,-76.5731443940313
771259000,-77.1424312108281
773818000,-76.1611610849276
776377000,-77.3768775358618
778936000,-77.0832193029733
781495000,-77.1369714729434
784054000,-77.5833050200846
786613000,-77.5260102476562
789172000,-75.4320010218816
791731000,-77.1378890578127
794290000,-76.7311152734806
796849000,-76.873273948151
799408000,-76.8409771129839
801967000,-76.9013723368841
804526000,-76.8375390706818
807085000,-76.895774010748
809644000,-77.2750248042849
812203000,-76.2117717377483
814762000,-76.8048578628096
817321000,-76.574253653242
819880000,-76.2016700465514
822439000,-76.9664685698449
824998000,-77.3043046768723
827557000,-76.0022557246903
830116000,-76.8547607465319
832675000,-76.6427531609187
835234000,-77.4052266074266
837793000,-76.8666868623431
840352000,-77.2312947002513
842911000,-76.2817029116101
845470000,-76.316909016586
848029000,-76.9076743400941
850588000,-76.9457752624774
853147000,-75.2835565803209
855706000,-77.193563579104
858265000,-76.9729544295979
860824000,-76.1608546049428
863383000,-76.5612556484837
865942000,-75.9961573231164
868501000,-76.756278701768
871060000,-75.8508910523409
873619000,-77.0119142503218
876178000,-76.3341884263076
878737000,-76.3859046113955
881296000,-76.0055941302908
883855000,-76.7447432871889
886414000,-76.2877478345424
888973000,-76.4757501262995
891532000,-76.5909812516929
894091000,-76.2943574395595
896650000,-75.6426684675499
899209000,-76.9447579742724
901768000,-76.1380398209467
904327000,-76.2186402549194
906886000,-76.1985844924091
909445000,-76.6252324041295
912004000,-75.6962675341945
914563000,-76.4004204794363
917122000,-77.1870122300583
919681000,-77.0027627881407
922240000,-76.071105900636
924799000,-75.9414900700548
927358000,-76.6792908476744
929917000,-76.7969087917988
932476000,-75.9265904786927
935035000,-75.8343096857581
937594000,-76.1347638449334
940153000,-75.991252659868
942712000,-76.4705540397064
945271000,-76.13286001756
947830000,-76.5486988842744
950389000,-76.199719597437
952948000,-76.0650501421926
955507000,-77.1986488428154
958066000,-77.0801520474733
960625000,-75.6881089433874
963184000,-76.5189748792381
965743000,-77.2472547152403
968302000,-75.119025571251
970861000,-76.8238093572272
973420000,-75.1037986157683
975979000,-75.7989129818626
978538000,-75.5086802008543
981097000,-75.501964927539
983656000,-76.0555476819713
986215000,-75.3084336654891
988774000,-75.8294123711894
991333000,-76.39173214036
993892000,-75.8934223764874
996451000,-76.9462376688233
999010000,-76.8019662385461
1001569000,-75.6542956849341
1004128000,-76.2472528811109
1006687000,-76.2633936460273
1009246000,-75.793359569385
1011805000,-76.2598125829781
1014364000,-76.0060308332214
1016923000,-76.2359474866578
1019482000,-75.766378365256
1022041000,-75.7002341335071
1024600000,-76.22474353856
1027159000,-76.5070929274587
1029718000,-75.9317184393905
1032277000,-75.9962887061415
1034836000,-75.6753714332603
1037395000,-76.5632854534116
1039954000,-76.6482954085717
1042513000,-76.1588062123329
1045072000,-76.0086838268672
1047631000,-76.5185347900526
1050190000,-76.4446609725656
1052749000,-76.4408248995663
1055308000,-76.3054805235286
1057867000,-76.005754713864
1060426000,-76.891309342131
1062985000,-76.7406436161728
1065544000,-76.5557629217554
1068103000,-76.3596468525425
1070662000,-76.0729076261889
1073221000,-76.3610590808587
1075780000,-76.6334705769964
1078339000,-76.8458120512651
1080898000,-76.9693528110659
1083457000,-76.8023347676932
1086016000,-75.6794335395554
1088575000,-76.6011489341799
1091134000,-75.5461063970264
1093693000,-76.3135584302024
1096252000,-76.5634872774402
1098811000,-75.9938528072925
1101370000,-76.8811038290628
1103929000,-76.410278150664
1106488000,-76.3902778053869
1109047000,-75.8948760965493
1111606000,-76.7898508663192
1114165000,-77.1542403331039
1116724000,-75.5010715119228
1119283000,-75.7260825506061
1121842000,-75.8288261224535
1124401000,-76.06198552314
1126960000,-76.22051149123
1129519000,-75.9120712085981
1132078000,-76.5394046697089
1134637000,-76.7743217360462
1137196000,-76.2416957564302
1139755000,-75.6563995590307
1142314000,-76.1427612201901
1144873000,-76.038073543025
1147432000,-76.9172271387788
1149991000,-76.1774980325681
1152550000,-76.4703151760755
1155109000,-76.2589731078572
1157668000,-76.2009416256577
1160227000,-76.1126892784858
1162786000,-75.8732568061367
1165345000,-75.7330863642679
1167904000,-77.3917473853128
1170463000,-76.3006214743812
1173022000,-75.8724030394569
1175581000,-76.4604397793075
1178140000,-76.5953171078923
1180699000,-75.7890377039386
1183258000,-76.2904516130302
1185817000,-75.2772118681383
1188376000,-76.7820985143513
1190935000,-75.3645931848888
1193494000,-76.3631207597031
1196053000,-76.4021495672745
1198612000,-75.0172059827907
1201171000,-75.4515917059542
1203730000,-75.109743891178
1206289000,-75.9395300907744
1208848000,-75.5800856242045
1211407000,-76.5642890133222
1213966000,-75.0572617638268
1216525000,-75.2629679904976
1219084000,-75.8509877962221
1221643000,-74.7768642800327
1224202000,-75.8577622356017
1226761000,-76.0179310529984
1229320000,-75.7996387175901
1231879000,-74.5729507199322
1234438000,-74.9470990161353
1236997000,-75.6518664643896
1239556000,-74.6561561272085
1242115000,-74.4584552059264
1244674000,-74.2501582909648
1247233000,-75.9157116549705
1249792000,-75.0919946483134
1252351000,-74.5016985588749
1254910000,-75.0335070693337
1257469000,-75.3409271330431
1260028000,-75.2384572739531
1262587000,-74.6702393870552
1265146000,-75.1556315493558
1267705000,-75.1345902388736
1270264000,-74.537479583218
1272823000,-74.7717137491349
1275382000,-69.4350616058425
1277941000,-35.699612427539
1280500000,-25.2010337036857
1283059000,-32.1713625701117
1285618000,-59.1227336331083
1288177000,-74.7170275288447
1290736000,-74.6482117631781
1293295000,-74.5741330702679
1295854000,-75.3230984156754
1298413000,-75.3827435933405
1300972000,-74.8960870676115
1303531000,-75.097773023447
1306090000,-74.7508308782797
1308649000,-75.7885215717097
1311208000,-74.6444678556064
1313767000,-75.5035692961211
1316326000,-74.0905083293967
1318885000,-76.0965518466159
1321444000,-75.356665162974
1324003000,-75.3571939000294
1326562000,-74.7460073693402
1329121000,-74.7625152830157
1331680000,-74.9236731838757
1334239000,-74.8062748777626
1336798000,-75.4487647935302
1339357000,-74.8941389226117
1341916000,-74.9332397023736
1344475000,-74.5465799101313
1347034000,-75.2009850216448
1349593000,-74.9842513085799
1352152000,-75.7522701534935
1354711000,-75.1909240874057
1357270000,-75.6451527942937
1359829000,-74.8391952717693
1362388000,-74.1495042221656
1364947000,-75.2182337357397
1367506000,-74.1041392381501
1370065000,-74.1237256643746
1372624000,-74.0121716151081
1375183000,-74.3025652427434
1377742000,-74.4796636124191
1380301000,-74.6647569385363
1382860000,-75.0048370958235
1385419000,-74.3920146492225
1387978000,-74.2405588662753
1390537000,-74.7108483337387
1393096000,-75.3391349227381
1395655000,-74.1178086764575
1398214000,-74.596007592269
1400773000,-74.5742335759885
1403332000,-74.4149717806098
1405891000,-74.7051747860848
1408450000,-74.4664962696415
1411009000,-73.5319979792363
1413568000,-74.7803660754394
1416127000,-74.5209081929584
1418686000,-73.6383878721519
1421245000,-75.4675155203964
1423804000,-74.0569660973327
1426363000,-74.6088823706934
1428922000,-74.4302305944023
1431481000,-74.7900690401894
1434040000,-74.9916317013962
1436599000,-74.1999418386419
1439158000,-74.3440165002044
1441717000,-74.5104326357907
1444276000,-73.6641970814342
1446835000,-73.7981652085223
1449394000,-74.0485346420874
1451953000,-74.2345574071728
1454512000,-73.9448651981512
1457071000,-73.564392625698
1459630000,-74.5384079708489
1462189000,-73.3317067656696
1464748000,-74.5055201827293
1467307000,-73.6414812936147
1469866000,-72.9589640422459
1472425000,-73.7300400719849
1474984000,-72.9966359947612
1477543000,-74.1791493449328
1480102000,-73.976636968836
1482661000,-74.3203275140867
1485220000,-74.1964957624856
1487779000,-74.2985206640288
1490338000,-74.7521477591184
1492897000,-74.0790713645671
1495456000,-73.3596436197271
1498015000,-73.7488837683308
1500574000,-75.380975753212
1503133000,-73.8917626129666
1505692000,-73.3916389735416
1508251000,-73.1454210682927
1510810000,-74.0810081426415
1513369000,-73.7048157934107
1515928000,-73.5368369933997
1518487000,-73.8192172426935
1521046000,-74.3000642577718
1523605000,-73.6954844294526
1526164000,-73.0286608959649
1528723000,-73.3272975622797
1531282000,-72.9691203798645
1533841000,-73.6706901779945
1536400000,-74.0153808671393
1538959000,-73.0099156033284
1541518000,-73.6882319522594
1544077000,-74.0501367988179
1546636000,-72.9976207029342
1549195000,-73.1399205917686
1551754000,-73.1858106037471
1554313000,-73.589979060401
1556872000,-73.4444489131901
1559431000,-73.1862011967627
1561990000,-72.7537069591432
1564549000,-73.573720335824
1567108000,-72.9966660281964
1569667000,-72.2618184536601
1572226000,-73.1821842744081
1574785000,-72.4346674840026
1577344000,-71.9096326069866
1579903000,-72.6829880166874
1582462000,-72.6719762115245
1585021000,-73.0445873806428
1587580000,-73.0626919235992
1590139000,-71.687038397171
1592698000,-73.0295719500737
1595257000,-72.1454385366079
1597816000,-71.9590515986573
1600375000,-72.7951206926812
1602934000,-72.2318644168934
1605493000,-71.5997338110711
1608052000,-73.2564709348026
1610611000,-72.0120901784216
1613170000,-71.98625618846
1615729000,-72.4464768567603
1618288000,-72.2949716084445
1620847000,-71.6103349668944
1623406000,-72.0668388807543
1625965000,-71.3010591617301
1628524000,-72.5730674803759
1631083000,-71.815410959807
1633642000,-71.5123513167842
1636201000,-71.938863051674
1638760000,-71.7866009397689
1641319000,-71.7682129227158
1643878000,-72.6786436697277
1646437000,-71.4970226857933
1648996000,-72.0658686164038
1651555000,-71.3780591648518
1654114000,-71.7842869610283
1656673000,-71.9098478833458
1659232000,-71.5420531705976
1661791000,-71.0583057548667
1664350000,-71.3169664645104
1666909000,-71.8809063581869
1669468000,-70.9810706542707
1672027000,-71.1096097244969
1674586000,-72.0883882903314
1677145000,-69.9673437146712
1679704000,-71.3620435461428
1682263000,-70.7466103312091
1684822000,-71.1592230071491
1687381000,-71.2656199236639
1689940000,-71.3545074088047
1692499000,-71.7345518165891
1695058000,-70.9892202227721
1697617000,-71.1868009688967
1700176000,-70.5436173615967
1702735000,-71.574634498048
1705294000,-70.5097129267228
1707853000,-71.1681653544609
1710412000,-71.6071616096497
1712971000,-71.2889083698816
1715530000,-71.7675411570301
1718089000,-70.2615297559415
1720648000,-70.9594377511235
1723207000,-71.2601278104843
1725766000,-70.7125637154655
1728325000,-70.8848052181485
1730884000,-70.6431291045025
1733443000,-71.7310238088245
1736002000,-71.3768516866226
1738561000,-71.3113165435007
1741120000,-70.9058150467965
1743679000,-70.8381301863289
1746238000,-72.1296332881818
1748797000,-71.2775733657214
1751356000,-71.0507578620721
1753915000,-70.6141519142133
1756474000,-71.8804816515967
1759033000,-70.4800542427715
1761592000,-71.1504145478014
1764151000,-71.6064491166422
1766710000,-71.0322321719514
1769269000,-71.7397466641664
1771828000,-72.2305088457641
1774387000,-71.1713190939212
1776946000,-70.477970929969
1779505000,-71.0978680585306
1782064000,-70.8163786791078
1784623000,-71.1332720693828
1787182000,-72.1704671305257
1789741000,-70.8692869261688
1792300000,-71.3185297984746
1794859000,-71.3213224663423
1797418000,-72.1134445104109
1799977000,-72.1140557144713
1802536000,-72.1655565567631
1805095000,-71.2578024336056
1807654000,-71.0082370931549
1810213000,-71.6910768907517
1812772000,-71.209341250404
1815331000,-72.2416370743767
1817890000,-72.276688642657
1820449000,-72.2537356141367
1823008000,-70.7479397846586
1825567000,-71.1514319199156
1828126000,-72.6503285349633
1830685000,-71.8330446428166
1833244000,-72.067041059355
1835803000,-72.2042096007132
1838362000,-71.6347180169991
1840921000,-71.6898165583219
1843480000,-71.8518385055482
1846039000,-72.0536496681122
1848598000,-72.6964222571426
1851157000,-71.7817000452566
1853716000,-71.9359854656268
1856275000,-71.9724062452945
1858834000,-72.6629324693369
1861393000,-71.6763991783691
1863952000,-72.1588467633494
1866511000,-72.5799975869926
1869070000,-71.4145304557442
1871629000,-72.6847142288621
1874188000,-72.4288000628523
1876747000,-72.7691912571807
1879306000,-72.3259599059417
1881865000,-72.7713646074688
1884424000,-71.7418002374689
1886983000,-71.8447358715922
1889542000,-72.5411744134822
1892101000,-72.1121354529692
1894660000,-72.2946959143438
1897219000,-72.0802426252278
1899778000,-72.1064356535934
1902337000,-72.1343265844345
1904896000,-72.1076734401641
1907455000,-72.379676945099
1910014000,-72.0281112050262
1912573000,-72.0889413048443
1915132000,-71.8755633204633
1917691000,-72.3143372183952
1920250000,-71.0479560029112
1922809000,-71.8444473231069
1925368000,-71.4753773598917
1927927000,-71.6538347589848
1930486000,-72.1675937222463
1933045000,-72.7358573986433
1935604000,-72.0001160285458
1938163000,-71.5368033120936
1940722000,-71.8236406674376
1943281000,-70.640877635369
1945840000,-71.7142493188899
1948399000,-71.8225251373019
1950958000,-71.0693235021349
1953517000,-71.7309663897019
1956076000,-71.3483944949434
1958635000,-71.4485653926885
1961194000,-72.1843917368347
1963753000,-71.7941598645157
1966312000,-71.3861178514365
1968871000,-71.0538896779582
1971430000,-70.8367395464146
1973989000,-71.20913133226
1976548000,-71.9015786044773
1979107000,-71.5981627821079
1981666000,-70.9802833510562
1984225000,-71.0192102825338
1986784000,-70.9583851020892
1989343000,-71.1819222671472
1991902000,-71.4675886363591
1994461000,-71.3185851689356
1997020000,-71.4157257704167
1999579000,-70.7182407152929
2002138000,-71.017034082129
2004697000,-69.8637331623735
2007256000,-72.0015178160975
2009815000,-70.9498360808046
2012374000,-71.1210494702338
2014933000,-71.4637112267889
2017492000,-70.642653874821
2020051000,-70.655987671653
2022610000,-70.2457068953388
2025169000,-70.8973150935872
2027728000,-71.0642620645841
2030287000,-70.8221299644008
2032846000,-70.8072597653882
2035405000,-70.9910481336269
2037964000,-70.6644234381113
2040523000,-70.635738334459
2043082000,-70.4896661295342
2045641000,-70.4179853024682
2048200000,-70.6508709721996
2050759000,-71.1833029464919
2053318000,-70.0853254720654
2055877000,-70.0955045006894
2058436000,-70.7984685613402
2060995000,-69.6565667911383
2063554000,-69.4798575692642
2066113000,-70.1642339092448
2068672000,-70.3279572025145
2071231000,-70.6632819727059
2073790000,-69.6732371765316
2076349000,-70.6285992760194
2078908000,-70.2844059325043
2081467000,-70.9539489435685
2084026000,-69.7912061095069
2086585000,-69.7768406424109
2089144000,-69.7015140196925
2091703000,-70.2074015784926
2094262000,-70.0273459589278
2096821000,-69.709048923796
2099380000,-70.9154340579023
2101939000,-69.9618599116315
2104498000,-69.2987473659675
2107057000,-70.3860540063721
2109616000,-70.2778170111789
2112175000,-69.9840051959166
2114734000,-70.0453101803469
2117293000,-70.057240724271
2119852000,-70.2726584768057
2122411000,-69.5202743577144
2124970000,-69.9923681553918
2127529000,-70.4725096209085
2130088000,-70.310634528893
2132647000,-70.2044703065382
2135206000,-70.5608234306579
2137765000,-70.7247538730976
2140324000,-70.464148895066
2142883000,-70.0248871166407
2145442000,-69.3221511007066
2148001000,-70.328979832594
2150560000,-70.2709572869156
2153119000,-70.3127907100802
2155678000,-70.2737270444683
2158237000,-70.5671445388309
2160796000,-70.4285862967035
2163355000,-71.6298404604917
2165914000,-70.3810295952969
2168473000,-71.6640851149367
2171032000,-70.6663311807189
2173591000,-70.7159915214739
2176150000,-71.2085331766642
2178709000,-71.0919861895161
2181268000,-70.9079391968827
2183827000,-71.3546658054226
2186386000,-71.1466170029487
2188945000,-71.265381456085
2191504000,-71.0988341041851
2194063000,-70.5022899119328
2196622000,-70.7295428799023
2199181000,-70.9938646739044
2201740000,-70.8484868943873
2204299000,-70.6588782335971
2206858000,-71.3306665572934
2209417000,-70.4038522489745
2211976000,-70.8838864410384
2214535000,-70.2841968509873
2217094000,-71.4115799092399
2219653000,-71.1098648061958
2222212000,-71.7081183022879
2224771000,-71.4958382587589
2227330000,-71.0420577257062
2229889000,-71.5323528650858
2232448000,-70.0733050256116
2235007000,-71.485872869581
2237566000,-70.2250130081731
2240125000,-71.0215772964785
2242684000,-71.1271126344658
2245243000,-71.6135138356028
2247802000,-71.4911477836243
2250361000,-71.1606912742462
2252920000,-71.2738609556603
2255479000,-72.0429001803336
2258038000,-71.5193662055984
2260597000,-71.4729177495534
2263156000,-70.8242422782233
2265715000,-71.8713497940546
2268274000,-71.0968736078197
2270833000,-72.2572013287461
2273392000,-70.5814756296952
2275951000,-71.5606733454584
2278510000,-71.0868305287473
2281069000,-71.139733475561
2283628000,-71.5963511066888
2286187000,-71.5742208975467
2288746000,-71.5593881682646
2291305000,-71.2601245011488
2293864000,-71.056489026076
2296423000,-70.7958256805642
2298982000,-71.9109800017878
2301541000,-71.3924930314181
2304100000,-70.8920708649218
2306659000,-71.7567038174258
2309218000,-70.8078255354454
2311777000,-71.4095873686075
2314336000,-71.9547700462738
2316895000,-71.3608185234862
2319454000,-71.5041789861101
2322013000,-71.6650843973445
2324572000,-71.1105915165131
2327131000,-71.6288695814563
2329690000,-71.4991321140212
2332249000,-71.4175491514398
2334808000,-71.8046575401468
2337367000,-71.1604979122295
2339926000,-71.035943149728
2342485000,-71.2266172892337
2345044000,-71.0098040951685
2347603000,-71.8642931256929
2350162000,-71.50723056013
2352721000,-72.410094026742
2355280000,-70.8057972636609
2357839000,-71.322781859894
2360398000,-71.6981636850757
2362957000,-70.9018340403105
2365516000,-71.0998141340054
2368075000,-71.4962225597451
2370634000,-71.4724124984045
2373193000,-72.1080212896956
2375752000,-71.8409708024992
2378311000,-70.3683433618222
2380870000,-71.3371090512543
2383429000,-70.030220786113
2385988000,-72.0994870272612
2388547000,-71.2907630423205
2391106000,-70.5555398272637
2393665000,-71.3723782847027
2396224000,-70.0714716256266
2398783000,-70.7991190450009
2401342000,-71.2557393958761
2403901000,-70.3313905225246
2406460000,-71.983726549357
2409019000,-71.3576467187035
2411578000,-71.2912677533031
2414137000,-71.3563627535865
2416696000,-71.0108689077934
2419255000,-71.265311250222
2421814000,-70.4941776043197
2424373000,-70.6792695058266
2426932000,-71.002780739652
2429491000,-71.3345310714969
2432050000,-70.7679688965784
2434609000,-70.5938297360116
2437168000,-70.7321567432286
2439727000,-70.9857802604004
2442286000,-70.6824591347186
2444845000,-70.0945616135394
2447404000,-72.2546514119856
2449963000,-70.4624997056162
2452522000,-70.358844642592
2455081000,-70.3783753479791
2457640000,-70.1837483100744
2460199000,-70.9209430785613
2462758000,-71.2342859222254
2465317000,-70.2979874304572
2467876000,-69.4198731450724
2470435000,-71.0279823499286
2472994000,-70.964433423115
2475553000,-70.5065719880009
2478112000,-70.8070649143008
2480671000,-69.9596007139214
2483230000,-70.2432052897325
2485789000,-70.8737993896484
2488348000,-70.1167638342239
2490907000,-70.6779643438211
2493466000,-70.998719726746
2496025000,-70.0593356583972
2498584000,-70.1286931026258
2501143000,-69.9792706881359
2503702000,-70.9641240519381
2506261000,-70.6757062093818
2508820000,-70.1757590769499
2511379000,-70.2421303437744
2513938000,-70.0021580897307
2516497000,-69.5176231446406
2519056000,-70.348018481256
2521615000,-69.9165481355691
2524174000,-69.4081770862355
2526733000,-69.2445342026286
2529292000,-70.2168457935561
2531851000,-70.0893379884907
2534410000,-69.9625198206306
2536969000,-69.6490822580342
2539528000,-68.9862156061984
2542087000,-70.4524311683317
2544646000,-69.0539289050171
2547205000,-68.8222371495513
2549764000,-69.2343245377719
2552323000,-69.3633087781456
2554882000,-70.2495442977967
2557441000,-69.5110959762525
2560000000,-68.1838108983886
